#E Channel (eV)	Total	Background	Characteristic	
5	0.178061	0.178061	0	
15	0.628203	0.628203	0	
25	1.82391	1.82391	0	
35	4.42357	4.42357	0	
45	9.1907	9.1907	0	
55	16.5086	16.5086	0	
65	25.7524	25.7524	0	
75	34.961	34.961	0	
85	41.3432	41.3432	0	
95	42.6428	42.6428	0	
105	38.4942	38.4942	0	
115	30.6358	30.6358	0	
125	21.7486	21.7486	0	
135	13.9882	13.9882	0	
145	8.24973	8.24973	0	
155	4.47766	4.47766	0	
165	2.21364	2.21364	0	
175	0.990674	0.990674	0	
185	0.478853	0.478853	0	
195	0.495219	0.495219	0	
205	1.09495	1.09495	0	
215	2.55476	2.55476	0	
225	5.24413	5.24413	0	
235	9.38192	9.38192	0	
245	14.7563	14.7563	0	
255	20.5783	20.5783	0	
265	25.6488	25.6488	0	
275	28.8272	28.8272	0	
285	29.5717	29.5717	0	
295	28.2252	28.2252	0	
305	25.8336	25.8336	0	
315	23.6033	23.6033	0	
325	22.3676	22.3676	0	
335	22.404	22.404	0	
345	23.5779	23.5779	0	
355	25.6333	25.6333	0	
365	28.3658	28.3658	0	
375	31.6562	31.6562	0	
385	35.4277	35.4277	0	
395	39.6267	39.6267	0	
405	44.2406	44.2406	0	
415	49.2913	49.2913	0	
425	54.8067	54.8067	0	
435	60.7779	60.7779	0	
445	67.1347	67.1347	0	
455	73.7577	73.7577	0	
465	80.4411	80.4411	0	
475	87.0071	87.0071	0	
485	93.2015	93.2015	0	
495	98.7126	98.7126	0	
505	103.355	103.355	0	
515	106.745	106.745	0	
525	109.189	109.189	0	
535	111.216	111.216	0	
545	113.502	113.502	0	
555	116.565	116.565	0	
565	120.578	120.578	0	
575	125.398	125.398	0	
585	130.735	130.735	0	
595	136.314	136.314	0	
605	141.947	141.947	0	
615	147.552	147.552	0	
625	153.034	153.034	0	
635	158.374	158.374	0	
645	163.548	163.548	0	
655	168.535	168.535	0	
665	173.439	173.439	0	
675	178.003	178.003	0	
685	182.336	182.336	0	
695	186.438	186.438	0	
705	190.316	190.316	0	
715	193.984	193.984	0	
725	197.456	197.456	0	
735	200.744	200.744	0	
745	203.855	203.855	0	
755	206.791	206.791	0	
765	209.55	209.55	0	
775	212.135	212.135	0	
785	214.547	214.547	0	
795	216.793	216.793	0	
805	218.88	218.88	0	
815	220.817	220.817	0	
825	222.609	222.609	0	
835	224.258	224.258	0	
845	225.767	225.767	0	
855	227.138	227.138	0	
865	228.376	228.376	0	
875	229.485	229.485	0	
885	230.471	230.471	0	
895	231.34	231.34	0	
905	232.094	232.094	0	
915	232.736	232.736	0	
925	233.269	233.269	0	
935	233.696	233.696	0	
945	234.026	234.026	0	
955	234.266	234.266	0	
965	234.425	234.425	0	
975	234.506	234.506	0	
985	234.511	234.511	0	
995	234.442	234.442	0	
1005	234.3	234.3	0	
1015	234.088	234.088	0	
1025	233.811	233.811	0	
1035	233.474	233.474	0	
1045	233.081	233.081	0	
1055	232.636	232.636	0	
1065	232.144	232.144	0	
1075	231.607	231.607	0	
1085	231.234	231.234	0	
1095	230.621	230.621	0	
1105	229.969	229.969	0	
1115	229.276	229.276	0	
1125	228.542	228.542	0	
1135	227.763	227.763	0	
1145	226.941	226.941	0	
1155	226.077	226.077	0	
1165	225.173	225.173	0	
1175	224.233	224.233	0	
1185	223.261	223.261	0	
1195	222.263	222.263	0	
1205	221.245	221.245	0	
1215	220.214	220.214	0	
1225	219.174	219.174	0	
1235	218.129	218.129	0	
1245	217.081	217.081	0	
1255	216.028	216.028	0	
1265	215.173	215.173	0	
1275	214.106	214.106	0	
1285	213.024	213.024	0	
1295	211.917	211.917	0	
1305	210.773	210.773	0	
1315	209.583	209.583	0	
1325	208.337	208.337	0	
1335	207.03	207.03	0	
1345	205.668	205.668	0	
1355	204.264	204.264	0	
1365	202.842	202.842	0	
1375	201.434	201.434	0	
1385	200.078	200.078	0	
1395	469.032	198.817	270.215	
1405	908.221	197.689	710.532	
1415	1867.86	196.732	1671.13	
1425	3711.47	195.97	3515.5	
1435	6810.22	195.416	6614.8	
1445	11327.7	195.055	11132.7	
1455	16953.3	194.847	16758.4	
1465	22763.1	194.715	22568.4	
1475	27379.3	194.542	27184.7	
1485	29489.1	194.188	29294.9	
1495	28442.2	193.481	28248.8	
1505	24578.7	192.234	24386.4	
1515	19055.3	190.256	18865	
1525	13291	187.379	13103.6	
1535	8389.3	183.478	8205.83	
1545	4849.23	178.504	4670.73	
1555	2626.53	172.495	2454.03	
1565	1387.48	165.579	1221.9	
1575	755.937	157.954	597.983	
1585	314.039	149.862	164.177	
1595	251.185	141.562	109.623	
1605	198.943	133.316	65.6272	
1615	160.605	125.379	35.2255	
1625	134.943	117.991	16.952	
1635	118.68	111.366	7.3144	
1645	108.508	105.678	2.82961	
1655	101.045	101.045	0	
1665	97.5215	97.5215	0	
1675	95.0823	95.0823	0	
1685	93.6461	93.6461	0	
1695	93.0811	93.0811	0	
1705	93.2173	93.2173	0	
1715	93.8675	93.8675	0	
1725	94.8431	94.8431	0	
1735	95.9677	95.9677	0	
1745	97.1682	97.1682	0	
1755	98.1541	98.1541	0	
1765	98.9189	98.9189	0	
1775	99.4032	99.4032	0	
1785	99.5733	99.5733	0	
1795	99.4168	99.4168	0	
1805	98.9415	98.9415	0	
1815	98.1785	98.1785	0	
1825	97.1872	97.1872	0	
1835	96.055	96.055	0	
1845	94.888	94.888	0	
1855	93.7917	93.7917	0	
1865	92.8494	92.8494	0	
1875	92.1069	92.1069	0	
1885	91.5695	91.5695	0	
1895	91.2114	91.2114	0	
1905	90.9905	90.9905	0	
1915	90.8624	90.8624	0	
1925	90.7887	90.7887	0	
1935	90.7406	90.7406	0	
1945	90.7822	90.7822	0	
1955	90.7334	90.7334	0	
1965	90.6672	90.6672	0	
1975	90.5798	90.5798	0	
1985	90.47	90.47	0	
1995	90.3386	90.3386	0	
2005	90.1878	90.1878	0	
2015	90.0207	90.0207	0	
2025	89.8409	89.8409	0	
2035	89.6517	89.6517	0	
2045	89.4563	89.4563	0	
2055	89.2573	89.2573	0	
2065	89.0567	89.0567	0	
2075	88.8556	88.8556	0	
2085	88.6545	88.6545	0	
2095	88.4536	88.4536	0	
2105	88.2523	88.2523	0	
2115	88.0499	88.0499	0	
2125	87.8455	87.8455	0	
2135	87.6375	87.6375	0	
2145	87.4241	87.4241	0	
2155	87.2026	87.2026	0	
2165	86.9698	86.9698	0	
2175	86.7219	86.7219	0	
2185	86.4546	86.4546	0	
2195	86.1636	86.1636	0	
2205	85.8454	85.8454	0	
2215	85.4987	85.4987	0	
2225	85.1247	85.1247	0	
2235	84.7278	84.7278	0	
2245	84.3151	84.3151	0	
2255	83.8949	83.8949	0	
2265	83.4752	83.4752	0	
2275	83.0615	83.0615	0	
2285	82.657	82.657	0	
2295	82.2624	82.2624	0	
2305	81.8776	81.8776	0	
2315	81.5032	81.5032	0	
2325	81.1409	81.1409	0	
2335	80.7935	80.7935	0	
2345	80.464	80.464	0	
2355	80.1543	80.1543	0	
2365	79.8642	79.8642	0	
2375	79.5914	79.5914	0	
2385	79.3316	79.3316	0	
2395	79.0796	79.0796	0	
2405	78.8295	78.8295	0	
2415	78.5759	78.5759	0	
2425	78.3138	78.3138	0	
2435	78.0395	78.0395	0	
2445	77.7501	77.7501	0	
2455	77.4444	77.4444	0	
2465	77.1226	77.1226	0	
2475	76.8463	76.8463	0	
2485	76.4991	76.4991	0	
2495	76.1445	76.1445	0	
2505	75.7868	75.7868	0	
2515	75.4307	75.4307	0	
2525	75.0809	75.0809	0	
2535	74.7412	74.7412	0	
2545	74.4147	74.4147	0	
2555	74.1035	74.1035	0	
2565	73.8083	73.8083	0	
2575	73.529	73.529	0	
2585	73.2641	73.2641	0	
2595	73.0116	73.0116	0	
2605	72.7687	72.7687	0	
2615	72.5326	72.5326	0	
2625	72.3002	72.3002	0	
2635	72.0687	72.0687	0	
2645	71.8354	71.8354	0	
2655	71.5977	71.5977	0	
2665	71.3535	71.3535	0	
2675	71.1007	71.1007	0	
2685	70.8378	70.8378	0	
2695	70.6236	70.6236	0	
2705	70.3384	70.3384	0	
2715	70.0421	70.0421	0	
2725	69.736	69.736	0	
2735	69.4222	69.4222	0	
2745	69.1034	69.1034	0	
2755	68.7825	68.7825	0	
2765	68.4628	68.4628	0	
2775	68.1472	68.1472	0	
2785	67.8387	67.8387	0	
2795	67.5399	67.5399	0	
2805	67.2532	67.2532	0	
2815	66.9804	66.9804	0	
2825	66.723	66.723	0	
2835	66.4815	66.4815	0	
2845	66.256	66.256	0	
2855	66.0455	66.0455	0	
2865	65.8479	65.8479	0	
2875	65.6604	65.6604	0	
2885	65.4794	65.4794	0	
2895	65.3005	65.3005	0	
2905	65.119	65.119	0	
2915	64.9302	64.9302	0	
2925	64.7297	64.7297	0	
2935	64.5135	64.5135	0	
2945	64.279	64.279	0	
2955	64.0245	64.0245	0	
2965	63.7498	63.7498	0	
2975	63.4558	63.4558	0	
2985	63.1449	63.1449	0	
2995	62.8204	62.8204	0	
3005	62.4864	62.4864	0	
3015	62.1473	62.1473	0	
3025	61.8076	61.8076	0	
3035	61.4718	61.4718	0	
3045	61.1437	61.1437	0	
3055	60.8265	60.8265	0	
3065	60.5227	60.5227	0	
3075	60.2342	60.2342	0	
3085	59.9618	59.9618	0	
3095	59.7058	59.7058	0	
3105	59.4659	59.4659	0	
3115	59.2415	59.2415	0	
3125	59.0315	59.0315	0	
3135	58.8347	58.8347	0	
3145	58.6495	58.6495	0	
3155	58.4743	58.4743	0	
3165	58.3073	58.3073	0	
3175	58.1463	58.1463	0	
3185	57.9891	57.9891	0	
3195	57.8334	57.8334	0	
3205	57.6768	57.6768	0	
3215	57.517	57.517	0	
3225	57.3517	57.3517	0	
3235	57.1793	57.1793	0	
3245	56.9982	56.9982	0	
3255	56.8077	56.8077	0	
3265	56.6074	56.6074	0	
3275	56.3978	56.3978	0	
3285	56.2215	56.2215	0	
3295	55.9968	55.9968	0	
3305	55.7668	55.7668	0	
3315	55.5336	55.5336	0	
3325	55.2991	55.2991	0	
3335	55.065	55.065	0	
3345	54.8329	54.8329	0	
3355	54.6038	54.6038	0	
3365	54.3782	54.3782	0	
3375	54.1564	54.1564	0	
3385	53.9381	53.9381	0	
3395	53.7229	53.7229	0	
3405	53.5098	53.5098	0	
3415	53.2981	53.2981	0	
3425	53.0869	53.0869	0	
3435	52.8754	52.8754	0	
3445	52.6632	52.6632	0	
3455	52.4499	52.4499	0	
3465	52.2356	52.2356	0	
3475	52.0205	52.0205	0	
3485	51.805	51.805	0	
3495	51.59	51.59	0	
3505	51.3761	51.3761	0	
3515	51.1642	51.1642	0	
3525	50.9967	50.9967	0	
3535	50.7908	50.7908	0	
3545	50.5886	50.5886	0	
3555	50.3901	50.3901	0	
3565	50.1952	50.1952	0	
3575	50.0037	50.0037	0	
3585	49.815	49.815	0	
3595	49.6283	49.6283	0	
3605	49.4429	49.4429	0	
3615	49.2578	49.2578	0	
3625	49.0722	49.0722	0	
3635	48.8853	48.8853	0	
3645	48.6965	48.6965	0	
3655	48.5054	48.5054	0	
3665	48.3116	48.3116	0	
3675	48.1154	48.1154	0	
3685	47.9167	47.9167	0	
3695	47.7161	47.7161	0	
3705	47.514	47.514	0	
3715	47.3113	47.3113	0	
3725	47.1088	47.1088	0	
3735	46.9073	46.9073	0	
3745	46.7079	46.7079	0	
3755	46.5116	46.5116	0	
3765	46.3195	46.3195	0	
3775	46.1328	46.1328	0	
3785	45.9525	45.9525	0	
3795	45.7797	45.7797	0	
3805	45.6153	45.6153	0	
3815	45.46	45.46	0	
3825	45.3144	45.3144	0	
3835	45.1784	45.1784	0	
3845	45.0517	45.0517	0	
3855	44.9334	44.9334	0	
3865	44.8223	44.8223	0	
3875	44.7164	44.7164	0	
3885	44.6136	44.6136	0	
3895	44.5112	44.5112	0	
3905	44.4067	44.4067	0	
3915	44.2976	44.2976	0	
3925	44.1814	44.1814	0	
3935	44.0564	44.0564	0	
3945	43.9213	43.9213	0	
3955	43.7757	43.7757	0	
3965	43.6199	43.6199	0	
3975	43.455	43.455	0	
3985	43.2827	43.2827	0	
3995	43.1056	43.1056	0	
4005	42.9261	42.9261	0	
4015	42.7472	42.7472	0	
4025	42.5714	42.5714	0	
4035	42.401	42.401	0	
4045	42.2377	42.2377	0	
4055	42.0826	42.0826	0	
4065	41.9357	41.9357	0	
4075	41.7967	41.7967	0	
4085	41.6641	41.6641	0	
4095	41.5362	41.5362	0	
4105	41.4107	41.4107	0	
4115	41.2853	41.2853	0	
4125	41.1575	41.1575	0	
4135	41.0254	41.0254	0	
4145	40.8873	40.8873	0	
4155	40.742	40.742	0	
4165	40.6176	40.6176	0	
4175	40.4575	40.4575	0	
4185	40.2908	40.2908	0	
4195	40.1187	40.1187	0	
4205	39.9428	39.9428	0	
4215	39.7648	39.7648	0	
4225	39.5867	39.5867	0	
4235	39.4101	39.4101	0	
4245	39.2366	39.2366	0	
4255	39.0674	39.0674	0	
4265	38.9034	38.9034	0	
4275	38.7449	38.7449	0	
4285	38.592	38.592	0	
4295	38.4445	38.4445	0	
4305	38.302	38.302	0	
4315	38.1637	38.1637	0	
4325	38.0289	38.0289	0	
4335	37.8967	37.8967	0	
4345	37.7666	37.7666	0	
4355	37.6378	37.6378	0	
4365	37.5098	37.5098	0	
4375	37.3825	37.3825	0	
4385	37.2554	37.2554	0	
4395	37.1287	37.1287	0	
4405	37.0024	37.0024	0	
4415	36.8765	36.8765	0	
4425	36.7795	36.7795	0	
4435	36.655	36.655	0	
4445	36.5311	36.5311	0	
4455	36.408	36.408	0	
4465	36.2855	36.2855	0	
4475	36.1635	36.1635	0	
4485	36.0419	36.0419	0	
4495	35.9202	35.9202	0	
4505	35.7983	35.7983	0	
4515	35.676	35.676	0	
4525	35.553	35.553	0	
4535	35.4293	35.4293	0	
4545	35.305	35.305	0	
4555	35.18	35.18	0	
4565	35.0549	35.0549	0	
4575	34.9301	34.9301	0	
4585	34.806	34.806	0	
4595	34.6833	34.6833	0	
4605	34.5627	34.5627	0	
4615	34.4447	34.4447	0	
4625	34.3296	34.3296	0	
4635	34.2179	34.2179	0	
4645	34.1093	34.1093	0	
4655	34.0035	34.0035	0	
4665	33.9	33.9	0	
4675	33.7978	33.7978	0	
4685	33.6957	33.6957	0	
4695	33.5923	33.5923	0	
4705	33.4862	33.4862	0	
4715	33.3759	33.3759	0	
4725	33.2603	33.2603	0	
4735	33.1381	33.1381	0	
4745	33.0087	33.0087	0	
4755	32.8719	32.8719	0	
4765	32.7276	32.7276	0	
4775	32.5766	32.5766	0	
4785	32.4197	32.4197	0	
4795	32.2582	32.2582	0	
4805	32.0936	32.0936	0	
4815	31.9276	31.9276	0	
4825	31.7617	31.7617	0	
4835	31.5976	31.5976	0	
4845	31.4365	31.4365	0	
4855	31.2795	31.2795	0	
4865	31.1273	31.1273	0	
4875	30.9805	30.9805	0	
4885	30.8391	30.8391	0	
4895	30.703	30.703	0	
4905	30.5718	30.5718	0	
4915	30.445	30.445	0	
4925	30.3219	30.3219	0	
4935	30.2019	30.2019	0	
4945	30.0842	30.0842	0	
4955	29.9681	29.9681	0	
4965	29.853	29.853	0	
4975	29.7384	29.7384	0	
4985	29.6237	29.6237	0	
4995	29.5084	29.5084	0	
5005	29.3923	29.3923	0	
5015	29.2751	29.2751	0	
5025	29.1565	29.1565	0	
5035	29.0362	29.0362	0	
5045	28.9141	28.9141	0	
5055	28.7901	28.7901	0	
5065	28.664	28.664	0	
5075	28.5358	28.5358	0	
5085	28.4055	28.4055	0	
5095	28.273	28.273	0	
5105	28.1385	28.1385	0	
5115	28.0203	28.0203	0	
5125	27.8822	27.8822	0	
5135	27.7426	27.7426	0	
5145	27.602	27.602	0	
5155	27.4609	27.4609	0	
5165	27.3199	27.3199	0	
5175	27.1796	27.1796	0	
5185	27.0409	27.0409	0	
5195	26.9045	26.9045	0	
5205	26.7712	26.7712	0	
5215	26.6417	26.6417	0	
5225	26.5167	26.5167	0	
5235	26.3968	26.3968	0	
5245	26.2821	26.2821	0	
5255	26.173	26.173	0	
5265	26.0691	26.0691	0	
5275	25.9704	25.9704	0	
5285	25.8762	25.8762	0	
5295	25.7858	25.7858	0	
5305	25.6985	25.6985	0	
5315	25.6133	25.6133	0	
5325	25.5292	25.5292	0	
5335	25.4454	25.4454	0	
5345	25.3609	25.3609	0	
5355	25.275	25.275	0	
5365	25.1869	25.1869	0	
5375	25.096	25.096	0	
5385	25.002	25.002	0	
5395	24.9227	24.9227	0	
5405	24.8215	24.8215	0	
5415	24.7166	24.7166	0	
5425	24.608	24.608	0	
5435	24.496	24.496	0	
5445	24.3809	24.3809	0	
5455	24.2632	24.2632	0	
5465	24.1435	24.1435	0	
5475	24.0224	24.0224	0	
5485	23.9008	23.9008	0	
5495	23.7794	23.7794	0	
5505	23.6591	23.6591	0	
5515	23.5406	23.5406	0	
5525	23.4248	23.4248	0	
5535	23.3122	23.3122	0	
5545	23.2032	23.2032	0	
5555	23.0984	23.0984	0	
5565	22.9977	22.9977	0	
5575	22.9011	22.9011	0	
5585	22.8086	22.8086	0	
5595	22.7198	22.7198	0	
5605	22.6342	22.6342	0	
5615	22.5515	22.5515	0	
5625	22.471	22.471	0	
5635	22.3924	22.3924	0	
5645	22.3153	22.3153	0	
5655	22.2392	22.2392	0	
5665	22.1639	22.1639	0	
5675	22.0892	22.0892	0	
5685	22.0151	22.0151	0	
5695	21.9415	21.9415	0	
5705	21.8684	21.8684	0	
5715	21.7959	21.7959	0	
5725	21.7241	21.7241	0	
5735	21.6529	21.6529	0	
5745	21.5825	21.5825	0	
5755	21.5126	21.5126	0	
5765	21.4433	21.4433	0	
5775	21.3742	21.3742	0	
5785	21.3051	21.3051	0	
5795	21.2358	21.2358	0	
5805	21.1659	21.1659	0	
5815	21.0952	21.0952	0	
5825	21.0232	21.0232	0	
5835	20.95	20.95	0	
5845	20.8752	20.8752	0	
5855	20.7989	20.7989	0	
5865	20.7211	20.7211	0	
5875	20.6419	20.6419	0	
5885	20.5617	20.5617	0	
5895	20.4808	20.4808	0	
5905	20.3995	20.3995	0	
5915	20.3184	20.3184	0	
5925	20.2379	20.2379	0	
5935	20.1586	20.1586	0	
5945	20.0808	20.0808	0	
5955	20.0049	20.0049	0	
5965	19.9315	19.9315	0	
5975	19.8606	19.8606	0	
5985	19.7926	19.7926	0	
5995	19.7275	19.7275	0	
6005	19.6653	19.6653	0	
6015	19.6057	19.6057	0	
6025	19.5485	19.5485	0	
6035	19.4931	19.4931	0	
6045	19.4388	19.4388	0	
6055	19.3847	19.3847	0	
6065	19.3296	19.3296	0	
6075	19.2725	19.2725	0	
6085	19.2119	19.2119	0	
6095	19.1466	19.1466	0	
6105	19.0752	19.0752	0	
6115	18.9968	18.9968	0	
6125	18.9102	18.9102	0	
6135	18.8151	18.8151	0	
6145	18.7226	18.7226	0	
6155	18.6104	18.6104	0	
6165	18.4904	18.4904	0	
6175	18.364	18.364	0	
6185	18.2325	18.2325	0	
6195	18.098	18.098	0	
6205	17.9623	17.9623	0	
6215	17.8277	17.8277	0	
6225	17.696	17.696	0	
6235	17.569	17.569	0	
6245	17.4482	17.4482	0	
6255	17.3346	17.3346	0	
6265	17.2287	17.2287	0	
6275	17.1307	17.1307	0	
6285	17.0402	17.0402	0	
6295	16.9565	16.9565	0	
6305	16.8785	16.8785	0	
6315	16.8051	16.8051	0	
6325	16.735	16.735	0	
6335	16.6667	16.6667	0	
6345	16.5992	16.5992	0	
6355	16.5314	16.5314	0	
6365	16.4626	16.4626	0	
6375	16.392	16.392	0	
6385	16.3193	16.3193	0	
6395	16.2446	16.2446	0	
6405	16.1677	16.1677	0	
6415	16.089	16.089	0	
6425	16.0088	16.0088	0	
6435	15.9274	15.9274	0	
6445	15.8566	15.8566	0	
6455	15.7742	15.7742	0	
6465	15.6917	15.6917	0	
6475	15.6096	15.6096	0	
6485	15.5281	15.5281	0	
6495	15.4474	15.4474	0	
6505	15.3676	15.3676	0	
6515	15.2888	15.2888	0	
6525	15.2112	15.2112	0	
6535	15.1346	15.1346	0	
6545	15.0593	15.0593	0	
6555	14.9852	14.9852	0	
6565	14.9124	14.9124	0	
6575	14.8408	14.8408	0	
6585	14.7706	14.7706	0	
6595	14.7017	14.7017	0	
6605	14.634	14.634	0	
6615	14.5676	14.5676	0	
6625	14.5024	14.5024	0	
6635	14.4383	14.4383	0	
6645	14.375	14.375	0	
6655	14.3123	14.3123	0	
6665	14.25	14.25	0	
6675	14.1878	14.1878	0	
6685	14.1252	14.1252	0	
6695	14.062	14.062	0	
6705	13.9977	13.9977	0	
6715	13.9321	13.9321	0	
6725	13.865	13.865	0	
6735	13.7963	13.7963	0	
6745	13.7259	13.7259	0	
6755	13.654	13.654	0	
6765	13.5809	13.5809	0	
6775	13.507	13.507	0	
6785	13.4328	13.4328	0	
6795	13.3588	13.3588	0	
6805	13.2857	13.2857	0	
6815	13.2141	13.2141	0	
6825	13.1445	13.1445	0	
6835	13.0774	13.0774	0	
6845	13.013	13.013	0	
6855	12.9514	12.9514	0	
6865	12.8927	12.8927	0	
6875	12.8366	12.8366	0	
6885	12.7828	12.7828	0	
6895	12.7306	12.7306	0	
6905	12.6795	12.6795	0	
6915	12.6289	12.6289	0	
6925	12.5781	12.5781	0	
6935	12.5265	12.5265	0	
6945	12.4736	12.4736	0	
6955	12.4191	12.4191	0	
6965	12.3626	12.3626	0	
6975	12.3042	12.3042	0	
6985	12.2439	12.2439	0	
6995	12.1819	12.1819	0	
7005	12.1184	12.1184	0	
7015	12.0539	12.0539	0	
7025	11.9887	11.9887	0	
7035	11.9231	11.9231	0	
7045	11.8577	11.8577	0	
7055	11.7928	11.7928	0	
7065	11.7285	11.7285	0	
7075	11.6652	11.6652	0	
7085	11.6029	11.6029	0	
7095	11.5418	11.5418	0	
7105	11.4817	11.4817	0	
7115	11.4228	11.4228	0	
7125	11.3648	11.3648	0	
7135	11.3076	11.3076	0	
7145	11.2512	11.2512	0	
7155	11.1954	11.1954	0	
7165	11.1401	11.1401	0	
7175	11.085	11.085	0	
7185	11.0302	11.0302	0	
7195	10.9756	10.9756	0	
7205	10.9212	10.9212	0	
7215	10.8668	10.8668	0	
7225	10.8127	10.8127	0	
7235	10.7589	10.7589	0	
7245	10.7056	10.7056	0	
7255	10.6593	10.6593	0	
7265	10.6074	10.6074	0	
7275	10.5567	10.5567	0	
7285	10.5073	10.5073	0	
7295	10.4595	10.4595	0	
7305	10.4135	10.4135	0	
7315	10.3695	10.3695	0	
7325	10.3275	10.3275	0	
7335	10.2876	10.2876	0	
7345	10.2496	10.2496	0	
7355	10.2133	10.2133	0	
7365	10.1783	10.1783	0	
7375	10.144	10.144	0	
7385	10.1101	10.1101	0	
7395	10.0757	10.0757	0	
7405	10.0404	10.0404	0	
7415	10.0035	10.0035	0	
7425	9.96449	9.96449	0	
7435	9.92312	9.92312	0	
7445	9.87914	9.87914	0	
7455	9.83255	9.83255	0	
7465	9.78356	9.78356	0	
7475	9.73257	9.73257	0	
7485	9.68015	9.68015	0	
7495	9.62701	9.62701	0	
7505	9.57396	9.57396	0	
7515	9.52182	9.52182	0	
7525	9.47143	9.47143	0	
7535	9.42352	9.42352	0	
7545	9.3787	9.3787	0	
7555	9.33743	9.33743	0	
7565	9.29997	9.29997	0	
7575	9.27284	9.27284	0	
7585	9.24302	9.24302	0	
7595	9.21663	9.21663	0	
7605	9.1932	9.1932	0	
7615	9.17215	9.17215	0	
7625	9.1528	9.1528	0	
7635	9.13441	9.13441	0	
7645	9.11624	9.11624	0	
7655	9.09754	9.09754	0	
7665	9.07762	9.07762	0	
7675	9.05581	9.05581	0	
7685	9.03155	9.03155	0	
7695	9.00434	9.00434	0	
7705	8.9738	8.9738	0	
7715	8.93962	8.93962	0	
7725	8.90163	8.90163	0	
7735	8.85975	8.85975	0	
7745	8.81402	8.81402	0	
7755	8.76459	8.76459	0	
7765	8.71172	8.71172	0	
7775	8.65575	8.65575	0	
7785	8.59712	8.59712	0	
7795	8.53632	8.53632	0	
7805	8.47388	8.47388	0	
7815	8.41035	8.41035	0	
7825	8.34629	8.34629	0	
7835	8.28221	8.28221	0	
7845	8.2186	8.2186	0	
7855	8.15587	8.15587	0	
7865	8.09436	8.09436	0	
7875	8.03433	8.03433	0	
7885	7.97598	7.97598	0	
7895	7.91941	7.91941	0	
7905	7.86466	7.86466	0	
7915	7.81171	7.81171	0	
7925	7.76048	7.76048	0	
7935	7.71087	7.71087	0	
7945	7.66273	7.66273	0	
7955	7.6159	7.6159	0	
7965	7.57021	7.57021	0	
7975	7.52548	7.52548	0	
7985	7.48156	7.48156	0	
7995	7.43829	7.43829	0	
8005	7.39555	7.39555	0	
8015	7.35324	7.35324	0	
8025	7.3113	7.3113	0	
8035	7.2697	7.2697	0	
8045	7.22847	7.22847	0	
8055	7.18767	7.18767	0	
8065	7.1474	7.1474	0	
8075	7.1078	7.1078	0	
8085	7.06904	7.06904	0	
8095	7.03129	7.03129	0	
8105	6.99475	6.99475	0	
8115	6.95957	6.95957	0	
8125	6.9259	6.9259	0	
8135	6.89384	6.89384	0	
8145	6.86341	6.86341	0	
8155	6.83459	6.83459	0	
8165	6.80729	6.80729	0	
8175	6.78133	6.78133	0	
8185	6.75646	6.75646	0	
8195	6.73236	6.73236	0	
8205	6.70865	6.70865	0	
8215	6.68491	6.68491	0	
8225	6.66067	6.66067	0	
8235	6.63543	6.63543	0	
8245	6.60869	6.60869	0	
8255	6.57996	6.57996	0	
8265	6.54874	6.54874	0	
8275	6.5146	6.5146	0	
8285	6.47712	6.47712	0	
8295	6.436	6.436	0	
8305	6.39099	6.39099	0	
8315	6.34194	6.34194	0	
8325	6.28885	6.28885	0	
8335	6.23184	6.23184	0	
8345	6.17114	6.17114	0	
8355	6.10718	6.10718	0	
8365	6.04046	6.04046	0	
8375	5.97164	5.97164	0	
8385	5.90147	5.90147	0	
8395	5.83073	5.83073	0	
8405	5.76024	5.76024	0	
8415	5.69079	5.69079	0	
8425	5.62608	5.62608	0	
8435	5.56078	5.56078	0	
8445	5.49835	5.49835	0	
8455	5.43909	5.43909	0	
8465	5.38314	5.38314	0	
8475	5.33045	5.33045	0	
8485	5.28077	5.28077	0	
8495	5.23374	5.23374	0	
8505	5.18885	5.18885	0	
8515	5.1455	5.1455	0	
8525	5.10304	5.10304	0	
8535	5.06083	5.06083	0	
8545	5.01823	5.01823	0	
8555	4.97466	4.97466	0	
8565	4.92962	4.92962	0	
8575	4.8827	4.8827	0	
8585	4.83361	4.83361	0	
8595	4.78217	4.78217	0	
8605	4.72829	4.72829	0	
8615	4.67203	4.67203	0	
8625	4.61351	4.61351	0	
8635	4.55297	4.55297	0	
8645	4.49072	4.49072	0	
8655	4.42716	4.42716	0	
8665	4.36272	4.36272	0	
8675	4.29788	4.29788	0	
8685	4.23314	4.23314	0	
8695	4.16901	4.16901	0	
8705	4.10597	4.10597	0	
8715	4.04446	4.04446	0	
8725	3.98487	3.98487	0	
8735	3.92752	3.92752	0	
8745	3.87262	3.87262	0	
8755	3.82031	3.82031	0	
8765	3.77356	3.77356	0	
8775	3.72635	3.72635	0	
8785	3.68151	3.68151	0	
8795	3.63879	3.63879	0	
8805	3.59792	3.59792	0	
8815	3.55856	3.55856	0	
8825	3.5204	3.5204	0	
8835	3.48312	3.48312	0	
8845	3.44644	3.44644	0	
8855	3.41014	3.41014	0	
8865	3.37405	3.37405	0	
8875	3.33808	3.33808	0	
8885	3.30221	3.30221	0	
8895	3.26649	3.26649	0	
8905	3.23102	3.23102	0	
8915	3.19597	3.19597	0	
8925	3.16153	3.16153	0	
8935	3.12792	3.12792	0	
8945	3.09537	3.09537	0	
8955	3.06412	3.06412	0	
8965	3.03439	3.03439	0	
8975	3.00636	3.00636	0	
8985	2.98017	2.98017	0	
8995	2.95594	2.95594	0	
9005	2.93369	2.93369	0	
9015	2.91339	2.91339	0	
9025	2.89494	2.89494	0	
9035	2.87815	2.87815	0	
9045	2.86275	2.86275	0	
9055	2.8484	2.8484	0	
9065	2.83469	2.83469	0	
9075	2.82115	2.82115	0	
9085	2.80727	2.80727	0	
9095	2.79255	2.79255	0	
9105	2.7765	2.7765	0	
9115	2.75865	2.75865	0	
9125	2.73864	2.73864	0	
9135	2.71618	2.71618	0	
9145	2.69112	2.69112	0	
9155	2.66343	2.66343	0	
9165	2.63321	2.63321	0	
9175	2.6007	2.6007	0	
9185	2.56626	2.56626	0	
9195	2.53032	2.53032	0	
9205	2.4934	2.4934	0	
9215	2.45602	2.45602	0	
9225	2.41872	2.41872	0	
9235	2.38196	2.38196	0	
9245	2.34616	2.34616	0	
9255	2.31165	2.31165	0	
9265	2.27862	2.27862	0	
9275	2.24717	2.24717	0	
9285	2.21728	2.21728	0	
9295	2.18884	2.18884	0	
9305	2.16166	2.16166	0	
9315	2.13548	2.13548	0	
9325	2.11003	2.11003	0	
9335	2.08502	2.08502	0	
9345	2.06019	2.06019	0	
9355	2.0353	2.0353	0	
9365	2.01018	2.01018	0	
9375	1.98469	1.98469	0	
9385	1.95878	1.95878	0	
9395	1.93244	1.93244	0	
9405	1.90571	1.90571	0	
9415	1.87866	1.87866	0	
9425	1.8514	1.8514	0	
9435	1.82403	1.82403	0	
9445	1.79667	1.79667	0	
9455	1.76942	1.76942	0	
9465	1.74234	1.74234	0	
9475	1.7155	1.7155	0	
9485	1.68891	1.68891	0	
9495	1.66258	1.66258	0	
9505	1.63649	1.63649	0	
9515	1.61061	1.61061	0	
9525	1.58488	1.58488	0	
9535	1.55925	1.55925	0	
9545	1.53369	1.53369	0	
9555	1.50815	1.50815	0	
9565	1.48259	1.48259	0	
9575	1.457	1.457	0	
9585	1.43138	1.43138	0	
9595	1.40573	1.40573	0	
9605	1.38007	1.38007	0	
9615	1.35442	1.35442	0	
9625	1.32878	1.32878	0	
9635	1.30319	1.30319	0	
9645	1.27765	1.27765	0	
9655	1.25214	1.25214	0	
9665	1.22665	1.22665	0	
9675	1.20152	1.20152	0	
9685	1.1759	1.1759	0	
9695	1.15012	1.15012	0	
9705	1.12409	1.12409	0	
9715	1.09767	1.09767	0	
9725	1.07073	1.07073	0	
9735	1.04314	1.04314	0	
9745	1.01471	1.01471	0	
9755	0.985275	0.985275	0	
9765	0.954657	0.954657	0	
9775	0.922671	0.922671	0	
9785	0.889163	0.889163	0	
9795	0.853996	0.853996	0	
9805	0.817051	0.817051	0	
9815	0.778249	0.778249	0	
9825	0.73756	0.73756	0	
9835	0.695019	0.695019	0	
9845	0.650736	0.650736	0	
9855	0.60491	0.60491	0	
9865	0.557828	0.557828	0	
9875	0.509875	0.509875	0	
9885	0.461526	0.461526	0	
9895	0.413332	0.413332	0	
9905	0.365904	0.365904	0	
9915	0.31988	0.31988	0	
9925	0.275896	0.275896	0	
9935	0.234545	0.234545	0	
9945	0.196344	0.196344	0	
9955	0.1617	0.1617	0	
9965	0.130887	0.130887	0	
9975	0.104032	0.104032	0	
9985	0.0811155	0.0811155	0	
9995	0.0619832	0.0619832	0	

